# E (eV)  dos(E)    pdos(E)
  -6.613  0.137E-04  0.137E-04
  -6.513  0.965E-03  0.962E-03
  -6.413  0.256E-01  0.256E-01
  -6.313  0.275E+00  0.275E+00
  -6.213  0.135E+01  0.135E+01
  -6.113  0.377E+01  0.376E+01
  -6.013  0.815E+01  0.813E+01
  -5.913  0.162E+02  0.162E+02
  -5.813  0.239E+02  0.239E+02
  -5.713  0.189E+02  0.188E+02
  -5.613  0.651E+01  0.650E+01
  -5.513  0.884E+00  0.883E+00
  -5.413  0.446E-01  0.446E-01
  -5.313  0.809E-03  0.808E-03
  -5.213  0.518E-05  0.517E-05
  -5.113  0.116E-07  0.116E-07
  -5.013  0.876E-11  0.875E-11
  -4.913  0.000E+00  0.000E+00
  -4.813  0.000E+00  0.000E+00
  -4.713  0.000E+00  0.000E+00
  -4.613  0.000E+00  0.000E+00
  -4.513  0.000E+00  0.000E+00
  -4.413  0.000E+00  0.000E+00
  -4.313  0.000E+00  0.000E+00
  -4.213  0.000E+00  0.000E+00
  -4.113  0.000E+00  0.000E+00
  -4.013  0.262E-10  0.261E-10
  -3.913  0.311E-07  0.311E-07
  -3.813  0.130E-04  0.130E-04
  -3.713  0.197E-02  0.197E-02
  -3.613  0.111E+00  0.111E+00
  -3.513  0.233E+01  0.232E+01
  -3.413  0.187E+02  0.187E+02
  -3.313  0.612E+02  0.611E+02
  -3.213  0.962E+02  0.961E+02
  -3.113  0.933E+02  0.932E+02
  -3.013  0.549E+02  0.548E+02
  -2.913  0.209E+02  0.209E+02
  -2.813  0.145E+02  0.145E+02
  -2.713  0.167E+02  0.166E+02
  -2.613  0.138E+02  0.138E+02
  -2.513  0.602E+01  0.601E+01
  -2.413  0.114E+01  0.114E+01
  -2.313  0.849E-01  0.849E-01
  -2.213  0.236E-02  0.236E-02
  -2.113  0.239E-04  0.239E-04
  -2.013  0.863E-07  0.863E-07
  -1.913  0.110E-09  0.110E-09
  -1.813  0.110E-13  0.110E-13
  -1.713  0.000E+00  0.000E+00
  -1.613  0.000E+00  0.000E+00
  -1.513  0.000E+00  0.000E+00
  -1.413  0.000E+00  0.000E+00
  -1.313  0.000E+00  0.000E+00
  -1.213  0.000E+00  0.000E+00
  -1.113  0.000E+00  0.000E+00
  -1.013  0.000E+00  0.000E+00
  -0.913  0.000E+00  0.000E+00
  -0.813  0.000E+00  0.000E+00
  -0.713  0.000E+00  0.000E+00
  -0.613  0.000E+00  0.000E+00
  -0.513  0.000E+00  0.000E+00
  -0.413  0.000E+00  0.000E+00
  -0.313  0.000E+00  0.000E+00
  -0.213  0.000E+00  0.000E+00
  -0.113  0.494E-11  0.491E-11
  -0.013  0.391E-08  0.389E-08
   0.087  0.113E-05  0.112E-05
   0.187  0.123E-03  0.122E-03
   0.287  0.529E-02  0.526E-02
   0.387  0.955E-01  0.950E-01
   0.487  0.805E+00  0.801E+00
   0.587  0.369E+01  0.367E+01
   0.687  0.973E+01  0.969E+01
   0.787  0.136E+02  0.135E+02
   0.887  0.104E+02  0.104E+02
   0.987  0.694E+01  0.692E+01
   1.087  0.512E+01  0.510E+01
   1.187  0.325E+01  0.324E+01
   1.287  0.300E+01  0.299E+01
   1.387  0.293E+01  0.292E+01
   1.487  0.218E+01  0.217E+01
   1.587  0.190E+01  0.189E+01
   1.687  0.198E+01  0.197E+01
   1.787  0.157E+01  0.156E+01
   1.887  0.110E+01  0.110E+01
   1.987  0.115E+01  0.114E+01
   2.087  0.150E+01  0.149E+01
   2.187  0.145E+01  0.144E+01
   2.287  0.179E+01  0.178E+01
   2.387  0.368E+01  0.367E+01
   2.487  0.636E+01  0.633E+01
   2.587  0.720E+01  0.718E+01
   2.687  0.673E+01  0.671E+01
   2.787  0.700E+01  0.698E+01
   2.887  0.740E+01  0.738E+01
   2.987  0.787E+01  0.785E+01
   3.087  0.877E+01  0.876E+01
   3.187  0.935E+01  0.933E+01
   3.287  0.948E+01  0.946E+01
   3.387  0.952E+01  0.950E+01
   3.487  0.880E+01  0.878E+01
   3.587  0.855E+01  0.853E+01
   3.687  0.894E+01  0.892E+01
   3.787  0.908E+01  0.906E+01
   3.887  0.841E+01  0.840E+01
   3.987  0.799E+01  0.798E+01
   4.087  0.774E+01  0.773E+01
   4.187  0.615E+01  0.614E+01
   4.287  0.458E+01  0.457E+01
   4.387  0.393E+01  0.393E+01
   4.487  0.306E+01  0.305E+01
   4.587  0.232E+01  0.231E+01
   4.687  0.167E+01  0.167E+01
   4.787  0.877E+00  0.875E+00
   4.887  0.296E+00  0.296E+00
   4.987  0.521E-01  0.519E-01
   5.087  0.394E-02  0.393E-02
   5.187  0.141E-03  0.141E-03
   5.287  0.623E-03  0.613E-03
   5.387  0.515E-02  0.507E-02
   5.487  0.145E-01  0.143E-01
   5.587  0.138E-01  0.136E-01
   5.687  0.452E-02  0.446E-02
   5.787  0.211E-02  0.208E-02
   5.887  0.185E-01  0.183E-01
   5.987  0.727E-01  0.717E-01
   6.087  0.113E+00  0.111E+00
   6.187  0.152E+00  0.150E+00
   6.287  0.251E+00  0.247E+00
   6.387  0.250E+00  0.246E+00
   6.487  0.166E+00  0.163E+00
   6.587  0.232E+00  0.225E+00
   6.687  0.768E+00  0.747E+00
   6.787  0.196E+01  0.191E+01
   6.887  0.259E+01  0.252E+01
   6.987  0.186E+01  0.180E+01
   7.087  0.146E+01  0.141E+01
   7.187  0.246E+01  0.238E+01
   7.287  0.345E+01  0.333E+01
   7.387  0.328E+01  0.315E+01
   7.487  0.345E+01  0.324E+01
   7.587  0.603E+01  0.558E+01
   7.687  0.866E+01  0.795E+01
   7.787  0.914E+01  0.830E+01
   7.887  0.898E+01  0.816E+01
   7.987  0.786E+01  0.715E+01
   8.087  0.621E+01  0.559E+01
   8.187  0.554E+01  0.495E+01
   8.287  0.551E+01  0.496E+01
   8.387  0.424E+01  0.384E+01
   8.487  0.280E+01  0.255E+01
   8.587  0.299E+01  0.272E+01
   8.687  0.374E+01  0.336E+01
   8.787  0.377E+01  0.340E+01
   8.887  0.322E+01  0.292E+01
   8.987  0.240E+01  0.219E+01
   9.087  0.211E+01  0.193E+01
   9.187  0.233E+01  0.212E+01
   9.287  0.390E+01  0.348E+01
   9.387  0.523E+01  0.458E+01
   9.487  0.530E+01  0.446E+01
   9.587  0.553E+01  0.453E+01
   9.687  0.481E+01  0.390E+01
   9.787  0.338E+01  0.270E+01
   9.887  0.211E+01  0.166E+01
   9.987  0.112E+01  0.862E+00
  10.087  0.449E+00  0.337E+00
  10.187  0.103E+00  0.758E-01
  10.287  0.106E-01  0.772E-02
  10.387  0.421E-03  0.307E-03
  10.487  0.606E-05  0.440E-05
